!!!!!!!!!!!!!  physical parameters !!!!!!!!!!!!!!!!!!!!!!!!!!!!!!
  0.92    ! Freq,     RF frequency, GHz
  2.0     ! xmi1,     Mi1/Mp,  relative mass of ions 1
  1.0     ! zi1,      charge of ions 1
  16.0     ! xmi2,     Mi2/Mp,  relative mass of ions 2
  8.0     ! zi2,      charge of ions 2
  0.03     ! dni2,  0.03   Ni2/Ni1, relative density of ions 2
  1.0     ! xmi3,     Mi3/Mp,  relative mass of ions 3
  1.0     ! zi3,      charge of ions 3
  0.0     ! dni3,     Ni3/Ni1, relative density of ions 3
!!!!!!!!!!!!!  parameters for alphas calculations !!!!!!!!!!!!!!!!!
  0       ! itend0,   if = 0, no alphas
  30.0    ! energy,   max. perp. energy of alphas (MeV)
  1.0     ! factor,   factor in alpha source
  0.3     ! dra,      relative alpha source broadening (dr/a)
  30      ! kv,       V_perp  greed number
!!!!!!!!!!!!! numerical parameters !!!!!!!!!!!!!!!!!!!!!!!!!!!!!
  30      ! nr,       radial grid number  <= 505
 1.e-6    ! hmin1,    rel.(hr) min. step in the Fast comp. mode, <1.d0
 1.e-4    ! rrange,   rel.(hr) size of a 'turning' point region, <1.d0
 1.e-6    ! eps,      accuracy
 1.5      ! hdrob,    h4 correction,
 0.7      ! cleft,    left Vz plato border shift (<1)
 1.5      ! cright,   right Vz plato border shift (>1)
 0.25     ! cdel,     (left part)/(Vz plato size)
 0.999    ! rbord,    relative radius of reflection, <1.
 0.2      ! pchm,     threshold between 'strong' and weak' absorption, <1.
 1.e-2    ! pabs,     part of remaining power interp. as absorption
 1.e-4    ! pgiter,   relative accuracy to stop iterations
 20       ! ni1,      grid number in the left part of Vz plato
 20       ! ni2,      grid number in the right part of Vz plato
 99       ! niterat,  maximal number of iterations
 20       ! nmaxm(1), permitted reflections at 0 iteration
 20       ! nmaxm(2), permitted reflections at 1 iteration
 20       ! nmaxm(3), permitted reflections at 2 iteration
 20       ! nmaxm(4), permitted reflections at 3 iteration
 1000     ! maxstep2, maximal steps' number in Fast comp. mode
 1000     ! maxstep4, maximal steps' number in Slow comp. mode
!!!!!!!!!!!!!  options !!!!!!!!!!!!!!!!!!!!!!!!!!!!!!!!!!!!!!!!!!
  2      ! ipri,      printing output monitoring: 0,1,2,3,4
  1      ! iw,        initial mode (slow=1, fast=-1)
  0      ! ismth,     if=0, no smoothing in Ne(rho),Te(rho),Ti(rho)
  0      ! ismthalf,  if=0, no smoothing in D_alpha(vperp)
  1      ! ismthout,  if=0, no smoothing in output profiles
  0      ! inew=0 for usual tokamak&Ntor_grill; 1 or 2 for g' in ST&Npol_grill
  1      ! itor,      +-1, Btor direction in right coord{drho,dteta,dfi}
  1      ! ipol,      +-1, Bpol direction in right coord{drho,dteta,dfi}
!!!!!!!!!!!!!  grill parameters and input LH spectrum !!!!!!!!!!!!
  8.0   ! Zplus,    upper grill corner in centimeters
 -8.0   ! Zminus,   lower grill corner in centimeters
  10     ! ntet,     theta grid number
  50     ! nnz,      N_phi grid number
!!positive Nfi; P_LH(a.units); points<10010.0250 0.0423
0.0501 0.0175
0.0751 0.0038
0.1002 0.0013
0.1252 0.0007
0.1502 0.0005
0.1753 0.0005
0.2003 0.0007
0.2254 0.0092
0.2504 0.0009
0.2755 0.0004
0.3005 0.0005
0.3255 0.0077
0.3506 0.0004
0.3756 0.0005
0.4007 0.0010
0.4257 0.0003
0.4507 0.0102
0.4758 0.0003
0.5008 0.0074
0.5259 0.0004
0.5509 0.0006
0.5760 0.0004
0.6010 0.0004
0.6260 0.0005
0.6511 0.0005
0.6761 0.0003
0.7012 0.0002
0.7262 0.0002
0.7512 0.0002
0.7763 0.0002
0.8013 0.0002
0.8264 0.0003
0.8514 0.0005
0.8765 0.0047
0.9015 0.0008
0.9265 0.0095
0.9516 0.0015
0.9766 0.0021
1.0017 0.0032
1.0267 0.0041
1.0518 0.0450
1.0768 0.0364
1.1018 0.0284
1.1269 0.0520
1.1519 0.1398
1.1770 0.0881
1.2020 0.0038
1.2270 0.0015
1.2521 0.0009
1.2771 0.0007
1.3022 0.0006
1.3272 0.0006
1.3523 0.0007
1.3773 0.0009
1.4023 0.0014
1.4274 0.0022
1.4524 0.0031
1.4775 0.0124
1.5025 0.0456
1.5275 0.0511
1.5526 0.0159
1.5776 0.0179
1.6027 0.0330
1.6277 0.0272
1.6528 0.0275
1.6778 0.0275
1.7028 0.0275
1.7279 0.0275
1.7529 0.0278
1.7780 0.0278
1.8030 0.0278
1.8280 0.0281
1.8531 0.0282
1.8781 0.0284
1.9032 0.0285
1.9282 0.0288
1.9533 0.0290
1.9783 0.0293
2.0033 0.0294
2.0284 0.0297
2.0534 0.0300
2.0785 0.0304
2.1035 0.0307
2.1285 0.0309
2.1536 0.0311
2.1786 0.0313
2.2037 0.0317
2.2287 0.0321
2.2538 0.0325
2.2788 0.0329
2.3038 0.0332
2.3289 0.0335
2.3539 0.0337
2.3790 0.0340
2.4040 0.0343
2.4290 0.0347
2.4541 0.0351
2.4791 0.0355
2.5042 0.0359
2.5292 0.0363
2.5543 0.0367
2.5793 0.0370
2.6043 0.0373
2.6294 0.0376
2.6544 0.0379
2.6795 0.0382
2.7045 0.0385
2.7295 0.0389
2.7546 0.0392
2.7796 0.0396
2.8047 0.0400
2.8297 0.0404
2.8548 0.0407
2.8798 0.0411
2.9048 0.0414
2.9299 0.0417
2.9549 0.0420
2.9800 0.0423
3.0050 0.0426
3.0301 0.0428
3.0551 0.0431
3.0801 0.0433
3.1052 0.0436
3.1302 0.0439
3.1553 0.0442
3.1803 0.0445
3.2053 0.0448
3.2304 0.0450
3.2554 0.0453
3.2805 0.0456
3.3055 0.0459
3.3306 0.0461
3.3556 0.0464
3.3806 0.0466
3.4057 0.0468
3.4307 0.0470
3.4558 0.0472
3.4808 0.0474
3.5058 0.0476
3.5309 0.0478
3.5559 0.0479
3.5810 0.0481
3.6060 0.0483
3.6311 0.0484
3.6561 0.0486
3.6811 0.0487
3.7062 0.0489
3.7312 0.0490
3.7563 0.0492
3.7813 0.0493
3.8063 0.0495
3.8314 0.0496
3.8564 0.0497
3.8815 0.0498
3.9065 0.0499
3.9316 0.0500
3.9566 0.0501
3.9816 0.0502
4.0067 0.0503
4.0317 0.0503
4.0568 0.0504
4.0818 0.0504
4.1068 0.0504
4.1319 0.0505
4.1569 0.0505
4.1820 0.0505
4.2070 0.0505
4.2321 0.0505
4.2571 0.0505
4.2821 0.0505
4.3072 0.0505
4.3322 0.0505
4.3573 0.0505
4.3823 0.0504
4.4073 0.0504
4.4324 0.0504
4.4574 0.0503
4.4825 0.0503
4.5075 0.0502
4.5326 0.0501
4.5576 0.0501
4.5826 0.0500
4.6077 0.0499
4.6327 0.0498
4.6578 0.0497
4.6828 0.0495
4.7078 0.0494
4.7329 0.0493
4.7579 0.0492
4.7830 0.0490
4.8080 0.0489
4.8331 0.0487
4.8581 0.0486
4.8831 0.0484
4.9082 0.0482
4.9332 0.0480
4.9583 0.0479
4.9833 0.0477
5.0083 0.0475
5.0334 0.0473
5.0584 0.0471
5.0835 0.0469
5.1085 0.0466
5.1336 0.0464
5.1586 0.0462
5.1836 0.0460
5.2087 0.0457
5.2337 0.0455
5.2588 0.0452
5.2838 0.0450
5.3088 0.0447
5.3339 0.0444
5.3589 0.0442
5.3840 0.0439
5.4090 0.0436
5.4341 0.0433
5.4591 0.0430
5.4841 0.0427
5.5092 0.0424
5.5342 0.0421
5.5593 0.0418
5.5843 0.0415
5.6093 0.0412
5.6344 0.0409
5.6594 0.0405
5.6845 0.0402
5.7095 0.0399
5.7346 0.0395
5.7596 0.0392
5.7846 0.0389
5.8097 0.0385
5.8347 0.0382
5.8598 0.0378
5.8848 0.0375
5.9098 0.0371
5.9349 0.0368
5.9599 0.0364
5.9850 0.0360
6.0100 0.0357
6.0351 0.0353
6.0601 0.0349
6.0851 0.0346
6.1102 0.0342
6.1352 0.0338
6.1603 0.0334
6.1853 0.0331
6.2104 0.0327
6.2354 0.0323
6.2604 0.0319
6.2855 0.0316
6.3105 0.0312
6.3356 0.0308
6.3606 0.0304
6.3856 0.0300
6.4107 0.0296
6.4357 0.0293
6.4608 0.0289
6.4858 0.0285
6.5109 0.0281
6.5359 0.0277
6.5609 0.0273
6.5860 0.0269
6.6110 0.0266
6.6361 0.0262
6.6611 0.0258
6.6861 0.0254
6.7112 0.0250
6.7362 0.0246
6.7613 0.0243
6.7863 0.0239
6.8114 0.0235
6.8364 0.0231
6.8614 0.0228
6.8865 0.0224
6.9115 0.0220
6.9366 0.0216
6.9616 0.0213
6.9866 0.0209
7.0117 0.0205
7.0367 0.0202
7.0618 0.0198
7.0868 0.0195
7.1119 0.0191
7.1369 0.0187
7.1619 0.0184
7.1870 0.0180
7.2120 0.0177
7.2371 0.0173
7.2621 0.0170
7.2871 0.0166
7.3122 0.0163
7.3372 0.0160
7.3623 0.0156
7.3873 0.0153
7.4124 0.0150
7.4374 0.0147
7.4624 0.0143
7.4875 0.0140
7.5125 0.0137
7.5376 0.0134
7.5626 0.0131
7.5876 0.0128
7.6127 0.0125
7.6377 0.0122
7.6628 0.0119
7.6878 0.0116
7.7129 0.0113
7.7379 0.0110
7.7629 0.0107
7.7880 0.0104
7.8130 0.0102
7.8381 0.0099
7.8631 0.0096
7.8881 0.0094
7.9132 0.0091
7.9382 0.0088
7.9633 0.0086
7.9883 0.0083
8.0134 0.0081
8.0384 0.0078
8.0634 0.0076
8.0885 0.0074
8.1135 0.0071
8.1386 0.0069
8.1636 0.0067
8.1886 0.0065
8.2137 0.0062
8.2387 0.0060
8.2638 0.0058
8.2888 0.0056
8.3139 0.0054
8.3389 0.0052
8.3639 0.0050
8.3890 0.0049
8.4140 0.0047
8.4391 0.0045
8.4641 0.0043
8.4891 0.0041
8.5142 0.0040
8.5392 0.0038
8.5643 0.0036
8.5893 0.0035
8.6144 0.0033
8.6394 0.0032
8.6644 0.0030
8.6895 0.0029
8.7145 0.0028
8.7396 0.0026
8.7646 0.0025
8.7896 0.0024
8.8147 0.0023
8.8397 0.0021
8.8648 0.0020
8.8898 0.0019
8.9149 0.0018
8.9399 0.0017
8.9649 0.0016
8.9900 0.0015
9.0150 0.0014
9.0401 0.0013
9.0651 0.0013
9.0901 0.0012
9.1152 0.0011
9.1402 0.0010
9.1653 0.0009
9.1903 0.0009
9.2154 0.0008
9.2404 0.0008
9.2654 0.0007
9.2905 0.0006
9.3155 0.0006
9.3406 0.0005
9.3656 0.0005
9.3907 0.0005
9.4157 0.0004
9.4407 0.0004
9.4658 0.0003
9.4908 0.0003
9.5159 0.0003
9.5409 0.0003
9.5659 0.0002
9.5910 0.0002
9.6160 0.0002
9.6411 0.0002
9.6661 0.0002
9.6912 0.0002
9.7162 0.0002
9.7412 0.0002
9.7663 0.0002
9.7913 0.0001
9.8164 0.0002
9.8414 0.0002
9.8664 0.0002
9.8915 0.0002
9.9165 0.0002
9.9416 0.0002
9.9666 0.0002
9.9917 0.0002
10.0170 0.0002
10.0420 0.0002
10.0670 0.0003
10.0920 0.0003
10.1170 0.0003
10.1420 0.0003
10.1670 0.0004
10.1920 0.0004
10.2170 0.0004
10.2420 0.0004
10.2670 0.0005
10.2920 0.0005
10.3170 0.0005
10.3420 0.0006
10.3670 0.0006
10.3920 0.0006
10.4170 0.0007
10.4420 0.0007
10.4670 0.0007
10.4920 0.0008
10.5180 0.0008
10.5430 0.0009
10.5680 0.0009
10.5930 0.0009
10.6180 0.0010
10.6430 0.0010
10.6680 0.0010
10.6930 0.0011
10.7180 0.0011
10.7430 0.0012
10.7680 0.0012
10.7930 0.0012
10.8180 0.0013
10.8430 0.0013
10.8680 0.0014
10.8930 0.0014
10.9180 0.0014
10.9430 0.0015
10.9680 0.0015
10.9930 0.0015
11.0180 0.0016
11.0430 0.0016
11.0680 0.0016
11.0930 0.0017
11.1190 0.0017
11.1440 0.0017
11.1690 0.0018
11.1940 0.0018
11.2190 0.0018
11.2440 0.0018
11.2690 0.0019
11.2940 0.0019
11.3190 0.0019
11.3440 0.0019
11.3690 0.0020
11.3940 0.0020
11.4190 0.0020
11.4440 0.0020
11.4690 0.0020
11.4940 0.0021
11.5190 0.0021
11.5440 0.0021
11.5690 0.0021
11.5940 0.0021
11.6190 0.0021
11.6440 0.0021
11.6690 0.0021
11.6940 0.0021
11.7200 0.0021
11.7450 0.0021
11.7700 0.0021
11.7950 0.0021
11.8200 0.0021
11.8450 0.0021
11.8700 0.0021
11.8950 0.0021
11.9200 0.0021
11.9450 0.0021
11.9700 0.0021
11.9950 0.0021
12.0200 0.0020
12.0450 0.0020
12.0700 0.0020
12.0950 0.0020
12.1200 0.0020
12.1450 0.0019
12.1700 0.0019
12.1950 0.0019
12.2200 0.0019
12.2450 0.0018
12.2700 0.0018
12.2950 0.0018
12.3210 0.0017
12.3460 0.0017
12.3710 0.0017
12.3960 0.0016
12.4210 0.0016
12.4460 0.0016
12.4710 0.0015
12.4960 0.0015
12.5210 0.0015
12.5460 0.0014
12.5710 0.0014
12.5960 0.0013
12.6210 0.0013
12.6460 0.0013
12.6710 0.0012
12.6960 0.0012
12.7210 0.0011
12.7460 0.0011
12.7710 0.0011
12.7960 0.0010
12.8210 0.0010
12.8460 0.0009
12.8710 0.0009
12.8960 0.0009
12.9220 0.0008
12.9470 0.0008
12.9720 0.0007
12.9970 0.0007
13.0220 0.0007
13.0470 0.0006
13.0720 0.0006
13.0970 0.0006
13.1220 0.0005
13.1470 0.0005
13.1720 0.0005
13.1970 0.0005
13.2220 0.0004
13.2470 0.0004
13.2720 0.0004
13.2970 0.0004
13.3220 0.0004
13.3470 0.0004
13.3720 0.0003
13.3970 0.0003
13.4220 0.0003
13.4470 0.0003
13.4720 0.0003
13.4970 0.0003
13.5230 0.0004
13.5480 0.0004
13.5730 0.0004
13.5980 0.0004
13.6230 0.0004
13.6480 0.0005
13.6730 0.0005
13.6980 0.0005
13.7230 0.0006
13.7480 0.0006
13.7730 0.0007
13.7980 0.0007
13.8230 0.0008
13.8480 0.0009
13.8730 0.0009
13.8980 0.0010
13.9230 0.0011
13.9480 0.0012
13.9730 0.0013
13.9980 0.0014
14.0230 0.0015
14.0480 0.0017
14.0730 0.0018
14.0980 0.0019
14.1240 0.0021
14.1490 0.0022
14.1740 0.0024
14.1990 0.0025
14.2240 0.0027
14.2490 0.0029
14.2740 0.0031
14.2990 0.0033
14.3240 0.0035
14.3490 0.0037
14.3740 0.0039
14.3990 0.0041
14.4240 0.0044
14.4490 0.0046
14.4740 0.0049
14.4990 0.0052
14.5240 0.0055
14.5490 0.0058
14.5740 0.0061
14.5990 0.0064
14.6240 0.0067
14.6490 0.0070
14.6740 0.0074
14.6990 0.0077
14.7250 0.0081
14.7500 0.0085
14.7750 0.0089
14.8000 0.0093
14.8250 0.0097
14.8500 0.0101
14.8750 0.0106
14.9000 0.0110
14.9250 0.0115
14.9500 0.0120
14.9750 0.0124
15.0000 0.0130
0.5139 -88888.0
0.0250 0.0471
0.0501 0.0217
0.0751 0.0052
0.1002 0.0019
0.1252 0.0011
0.1502 0.0008
0.1753 0.0009
0.2003 0.0015
0.2254 0.0252
0.2504 0.0024
0.2755 0.0010
0.3005 0.0017
0.3255 0.0349
0.3506 0.0014
0.3756 0.0022
0.4007 0.0063
0.4257 0.0016
0.4507 0.1030
0.4758 0.0018
0.5008 0.1120
0.5259 0.0023
0.5509 0.0090
0.5760 0.0052
0.6010 0.0033
0.6260 0.0151
0.6511 0.0188
0.6761 0.0058
0.7012 0.0049
0.7262 0.0057
0.7512 0.0080
0.7763 0.0082
0.8013 0.0088
0.8264 0.0087
0.8514 0.0167
0.8765 0.1806
0.9015 0.0130
0.9265 0.2065
0.9516 0.0199
0.9766 0.0270
1.0017 0.0394
1.0267 0.0488
1.0518 0.4019
1.0768 0.2971
1.1018 0.2276
1.1269 0.3573
1.1519 0.8103
1.1770 0.4609
1.2020 0.0199
1.2270 0.0077
1.2521 0.0047
1.2771 0.0036
1.3022 0.0031
1.3272 0.0028
1.3523 0.0027
1.3773 0.0038
1.4023 0.0073
1.4274 0.0154
1.4524 0.0316
1.4775 0.0732
1.5025 0.1364
1.5275 0.1368
1.5526 0.0457
1.5776 0.0671
1.6027 0.0860
1.6277 0.0757
1.6528 0.0739
1.6778 0.0720
1.7028 0.0700
1.7279 0.0683
1.7529 0.0668
1.7780 0.0651
1.8030 0.0635
1.8280 0.0621
1.8531 0.0605
1.8781 0.0592
1.9032 0.0577
1.9282 0.0565
1.9533 0.0551
1.9783 0.0539
2.0033 0.0526
2.0284 0.0515
2.0534 0.0503
2.0785 0.0493
2.1035 0.0481
2.1285 0.0470
2.1536 0.0460
2.1786 0.0449
2.2037 0.0440
2.2287 0.0430
2.2538 0.0421
2.2788 0.0412
2.3038 0.0402
2.3289 0.0393
2.3539 0.0384
2.3790 0.0375
2.4040 0.0366
2.4290 0.0358
2.4541 0.0350
2.4791 0.0342
2.5042 0.0335
2.5292 0.0327
2.5543 0.0319
2.5793 0.0312
2.6043 0.0304
2.6294 0.0296
2.6544 0.0289
2.6795 0.0282
2.7045 0.0275
2.7295 0.0268
2.7546 0.0262
2.7796 0.0255
2.8047 0.0249
2.8297 0.0242
2.8548 0.0236
2.8798 0.0230
2.9048 0.0224
2.9299 0.0218
2.9549 0.0212
2.9800 0.0206
3.0050 0.0200
3.0301 0.0194
3.0551 0.0189
3.0801 0.0183
3.1052 0.0178
3.1302 0.0173
3.1553 0.0168
3.1803 0.0163
3.2053 0.0158
3.2304 0.0153
3.2554 0.0148
3.2805 0.0143
3.3055 0.0139
3.3306 0.0134
3.3556 0.0130
3.3806 0.0125
3.4057 0.0121
3.4307 0.0117
3.4558 0.0113
3.4808 0.0109
3.5058 0.0105
3.5309 0.0101
3.5559 0.0097
3.5810 0.0093
3.6060 0.0090
3.6311 0.0086
3.6561 0.0083
3.6811 0.0079
3.7062 0.0076
3.7312 0.0073
3.7563 0.0070
3.7813 0.0067
3.8063 0.0064
3.8314 0.0061
3.8564 0.0058
3.8815 0.0056
3.9065 0.0053
3.9316 0.0051
3.9566 0.0048
3.9816 0.0046
4.0067 0.0043
4.0317 0.0041
4.0568 0.0039
4.0818 0.0037
4.1068 0.0035
4.1319 0.0033
4.1569 0.0031
4.1820 0.0029
4.2070 0.0027
4.2321 0.0026
4.2571 0.0024
4.2821 0.0023
4.3072 0.0021
4.3322 0.0020
4.3573 0.0018
4.3823 0.0017
4.4073 0.0016
4.4324 0.0015
4.4574 0.0014
4.4825 0.0013
4.5075 0.0012
4.5326 0.0011
4.5576 0.0010
4.5826 0.0009
4.6077 0.0009
4.6327 0.0008
4.6578 0.0007
4.6828 0.0007
4.7078 0.0006
4.7329 0.0006
4.7579 0.0005
4.7830 0.0005
4.8080 0.0005
4.8331 0.0005
4.8581 0.0005
4.8831 0.0004
4.9082 0.0004
4.9332 0.0004
4.9583 0.0004
4.9833 0.0004
5.0083 0.0005
5.0334 0.0005
5.0584 0.0005
5.0835 0.0005
5.1085 0.0005
5.1336 0.0006
5.1586 0.0006
5.1836 0.0006
5.2087 0.0007
5.2337 0.0007
5.2588 0.0008
5.2838 0.0008
5.3088 0.0009
5.3339 0.0010
5.3589 0.0010
5.3840 0.0011
5.4090 0.0012
5.4341 0.0012
5.4591 0.0013
5.4841 0.0014
5.5092 0.0015
5.5342 0.0015
5.5593 0.0016
5.5843 0.0017
5.6093 0.0018
5.6344 0.0019
5.6594 0.0020
5.6845 0.0021
5.7095 0.0022
5.7346 0.0023
5.7596 0.0023
5.7846 0.0024
5.8097 0.0025
5.8347 0.0026
5.8598 0.0028
5.8848 0.0029
5.9098 0.0030
5.9349 0.0031
5.9599 0.0032
5.9850 0.0033
6.0100 0.0034
6.0351 0.0035
6.0601 0.0036
6.0851 0.0037
6.1102 0.0038
6.1352 0.0039
6.1603 0.0040
6.1853 0.0041
6.2104 0.0043
6.2354 0.0044
6.2604 0.0045
6.2855 0.0046
6.3105 0.0047
6.3356 0.0048
6.3606 0.0049
6.3856 0.0050
6.4107 0.0051
6.4357 0.0052
6.4608 0.0053
6.4858 0.0054
6.5109 0.0055
6.5359 0.0056
6.5609 0.0057
6.5860 0.0058
6.6110 0.0059
6.6361 0.0060
6.6611 0.0061
6.6861 0.0062
6.7112 0.0063
6.7362 0.0064
6.7613 0.0065
6.7863 0.0066
6.8114 0.0067
6.8364 0.0068
6.8614 0.0069
6.8865 0.0069
6.9115 0.0070
6.9366 0.0071
6.9616 0.0072
6.9866 0.0073
7.0117 0.0073
7.0367 0.0074
7.0618 0.0075
7.0868 0.0076
7.1119 0.0076
7.1369 0.0077
7.1619 0.0078
7.1870 0.0078
7.2120 0.0079
7.2371 0.0080
7.2621 0.0080
7.2871 0.0081
7.3122 0.0081
7.3372 0.0082
7.3623 0.0082
7.3873 0.0083
7.4124 0.0083
7.4374 0.0084
7.4624 0.0084
7.4875 0.0085
7.5125 0.0085
7.5376 0.0086
7.5626 0.0086
7.5876 0.0086
7.6127 0.0087
7.6377 0.0087
7.6628 0.0087
7.6878 0.0088
7.7129 0.0088
7.7379 0.0088
7.7629 0.0088
7.7880 0.0089
7.8130 0.0089
7.8381 0.0089
7.8631 0.0089
7.8881 0.0089
7.9132 0.0090
7.9382 0.0090
7.9633 0.0090
7.9883 0.0090
8.0134 0.0090
8.0384 0.0090
8.0634 0.0090
8.0885 0.0090
8.1135 0.0090
8.1386 0.0090
8.1636 0.0090
8.1886 0.0090
8.2137 0.0090
8.2387 0.0090
8.2638 0.0090
8.2888 0.0090
8.3139 0.0090
8.3389 0.0090
8.3639 0.0090
8.3890 0.0089
8.4140 0.0089
8.4391 0.0089
8.4641 0.0089
8.4891 0.0089
8.5142 0.0089
8.5392 0.0089
8.5643 0.0088
8.5893 0.0088
8.6144 0.0088
8.6394 0.0088
8.6644 0.0087
8.6895 0.0087
8.7145 0.0087
8.7396 0.0087
8.7646 0.0086
8.7896 0.0086
8.8147 0.0086
8.8397 0.0086
8.8648 0.0085
8.8898 0.0085
8.9149 0.0085
8.9399 0.0085
8.9649 0.0084
8.9900 0.0084
9.0150 0.0084
9.0401 0.0083
9.0651 0.0083
9.0901 0.0083
9.1152 0.0082
9.1402 0.0082
9.1653 0.0082
9.1903 0.0081
9.2154 0.0081
9.2404 0.0081
9.2654 0.0080
9.2905 0.0080
9.3155 0.0079
9.3406 0.0079
9.3656 0.0079
9.3907 0.0078
9.4157 0.0078
9.4407 0.0078
9.4658 0.0077
9.4908 0.0077
9.5159 0.0077
9.5409 0.0076
9.5659 0.0076
9.5910 0.0075
9.6160 0.0075
9.6411 0.0075
9.6661 0.0074
9.6912 0.0074
9.7162 0.0074
9.7412 0.0073
9.7663 0.0073
9.7913 0.0072
9.8164 0.0072
9.8414 0.0072
9.8664 0.0071
9.8915 0.0071
9.9165 0.0071
9.9416 0.0070
9.9666 0.0070
9.9917 0.0069
10.0170 0.0069
10.0420 0.0069
10.0670 0.0068
10.0920 0.0068
10.1170 0.0068
10.1420 0.0067
10.1670 0.0067
10.1920 0.0066
10.2170 0.0066
10.2420 0.0066
10.2670 0.0065
10.2920 0.0065
10.3170 0.0065
10.3420 0.0064
10.3670 0.0064
10.3920 0.0063
10.4170 0.0063
10.4420 0.0063
10.4670 0.0062
10.4920 0.0062
10.5180 0.0062
10.5430 0.0061
10.5680 0.0061
10.5930 0.0060
10.6180 0.0060
10.6430 0.0060
10.6680 0.0059
10.6930 0.0059
10.7180 0.0058
10.7430 0.0058
10.7680 0.0058
10.7930 0.0057
10.8180 0.0057
10.8430 0.0057
10.8680 0.0056
10.8930 0.0056
10.9180 0.0055
10.9430 0.0055
10.9680 0.0055
10.9930 0.0054
11.0180 0.0054
11.0430 0.0053
11.0680 0.0053
11.0930 0.0053
11.1190 0.0052
11.1440 0.0052
11.1690 0.0052
11.1940 0.0051
11.2190 0.0051
11.2440 0.0050
11.2690 0.0050
11.2940 0.0050
11.3190 0.0049
11.3440 0.0049
11.3690 0.0048
11.3940 0.0048
11.4190 0.0048
11.4440 0.0047
11.4690 0.0047
11.4940 0.0047
11.5190 0.0046
11.5440 0.0046
11.5690 0.0046
11.5940 0.0045
11.6190 0.0045
11.6440 0.0044
11.6690 0.0044
11.6940 0.0044
11.7200 0.0043
11.7450 0.0043
11.7700 0.0043
11.7950 0.0042
11.8200 0.0042
11.8450 0.0042
11.8700 0.0041
11.8950 0.0041
11.9200 0.0041
11.9450 0.0041
11.9700 0.0040
11.9950 0.0040
12.0200 0.0040
12.0450 0.0039
12.0700 0.0039
12.0950 0.0039
12.1200 0.0039
12.1450 0.0039
12.1700 0.0038
12.1950 0.0038
12.2200 0.0038
12.2450 0.0038
12.2700 0.0038
12.2950 0.0038
12.3210 0.0037
12.3460 0.0037
12.3710 0.0037
12.3960 0.0037
12.4210 0.0037
12.4460 0.0037
12.4710 0.0037
12.4960 0.0037
12.5210 0.0037
12.5460 0.0037
12.5710 0.0037
12.5960 0.0037
12.6210 0.0037
12.6460 0.0037
12.6710 0.0037
12.6960 0.0038
12.7210 0.0038
12.7460 0.0038
